
      	X(nS)     	Ch1(mV)      


 1    	0.0000    	-4.903198   
 2    	0.0587    	-4.256287   
 3    	0.1173    	-3.968811   
 4    	0.1760    	-3.681335   
 5    	0.2346    	-3.250061   
 6    	0.2933    	-4.543823   
 7    	0.3519    	-4.256287   
 8    	0.4106    	-4.184448   
 9    	0.4692    	-3.968811   
 10   	0.5279    	-3.896912   
 11   	0.5865    	-4.256287   
 12   	0.6452    	-4.040710   
 13   	0.7038    	-4.759460   
 14   	0.7625    	-4.328186   
 15   	0.8211    	-3.681335   
 16   	0.8798    	-3.753174   
 17   	0.9384    	-3.681335   
 18   	0.9971    	-3.321960   
 19   	1.0557    	-3.825073   
 20   	1.1144    	-3.537537   
 21   	1.1730    	-4.328186   
 22   	1.2317    	-3.753174   
 23   	1.2903    	-4.040710   
 24   	1.3490    	-3.825073   
 25   	1.4076    	-4.975037   
 26   	1.4663    	-4.256287   
 27   	1.5249    	-3.681335   
 28   	1.5836    	-3.393799   
 29   	1.6422    	-4.256287   
 30   	1.7009    	-4.687561   
 31   	1.7595    	-3.681335   
 32   	1.8182    	-3.393799   
 33   	1.8768    	-3.968811   
 34   	1.9355    	-3.250061   
 35   	1.9941    	-3.537537   
 36   	2.0528    	-3.465698   
 37   	2.1114    	-4.256287   
 38   	2.1701    	-3.178162   
 39   	2.2287    	-4.543823   
 40   	2.2874    	-4.328186   
 41   	2.3460    	-4.184448   
 42   	2.4047    	-4.328186   
 43   	2.4633    	-3.896912   
 44   	2.5220    	-3.753174   
 45   	2.5806    	-3.681335   
 46   	2.6393    	-3.968811   
 47   	2.6979    	-3.537537   
 48   	2.7566    	-3.753174   
 49   	2.8152    	-3.681335   
 50   	2.8739    	-4.256287   
 51   	2.9326    	-4.256287   
 52   	2.9912    	-4.040710   
 53   	3.0499    	-4.543823   
 54   	3.1085    	-4.040710   
 55   	3.1672    	-4.184448   
 56   	3.2258    	-4.471924   
 57   	3.2845    	-3.465698   
 58   	3.3431    	-3.753174   
 59   	3.4018    	-4.040710   
 60   	3.4604    	-2.962585   
 61   	3.5191    	-3.825073   
 62   	3.5777    	-2.890686   
 63   	3.6364    	-2.890686   
 64   	3.6950    	-3.034424   
 65   	3.7537    	-2.818786   
 66   	3.8123    	-2.315674   
 67   	3.8710    	-2.746948   
 68   	3.9296    	-2.818786   
 69   	3.9883    	-2.962585   
 70   	4.0469    	-3.034424   
 71   	4.1056    	-3.896912   
 72   	4.1642    	-4.400085   
 73   	4.2229    	-3.825073   
 74   	4.2815    	-4.040710   
 75   	4.3402    	-4.615662   
 76   	4.3988    	-3.250061   
 77   	4.4575    	-3.465698   
 78   	4.5161    	-2.171936   
 79   	4.5748    	-1.453186   
 80   	4.6334    	-1.956299   
 81   	4.6921    	-2.100037   
 82   	4.7507    	-2.387573   
 83   	4.8094    	-3.106323   
 84   	4.8680    	-2.531311   
 85   	4.9267    	-1.525085   
 86   	4.9853    	-2.315674   
 87   	5.0440    	-3.034424   
 88   	5.1026    	-3.465698   
 89   	5.1613    	-2.818786   
 90   	5.2199    	-3.178162   
 91   	5.2786    	-2.962585   
 92   	5.3372    	-3.034424   
 93   	5.3959    	-2.675049   
 94   	5.4545    	-3.896912   
 95   	5.5132    	-3.393799   
 96   	5.5718    	-3.609436   
 97   	5.6305    	-3.968811   
 98   	5.6891    	-3.681335   
 99   	5.7478    	-4.040710   
 100  	5.8065    	-3.465698   
 101  	5.8651    	-4.400085   
 102  	5.9238    	-4.543823   
 103  	5.9824    	-3.825073   
 104  	6.0411    	-3.753174   
 105  	6.0997    	-3.393799   
 106  	6.1584    	-3.106323   
 107  	6.2170    	-2.243835   
 108  	6.2757    	-3.465698   
 109  	6.3343    	-2.675049   
 110  	6.3930    	-2.387573   
 111  	6.4516    	-2.962585   
 112  	6.5103    	-3.106323   
 113  	6.5689    	-2.531311   
 114  	6.6276    	-3.250061   
 115  	6.6862    	-2.746948   
 116  	6.7449    	-1.956299   
 117  	6.8035    	-2.387573   
 118  	6.8622    	-3.178162   
 119  	6.9208    	-2.603210   
 120  	6.9795    	-2.746948   
 121  	7.0381    	-2.028198   
 122  	7.0968    	-2.315674   
 123  	7.1554    	-1.309448   
 124  	7.2141    	-2.387573   
 125  	7.2727    	-2.100037   
 126  	7.3314    	-2.171936   
 127  	7.3900    	-1.596924   
 128  	7.4487    	-1.309448   
 129  	7.5073    	-1.453186   
 130  	7.5660    	-1.525085   
 131  	7.6246    	-0.662537   
 132  	7.6833    	0.056213    
 133  	7.7419    	1.206177    
 134  	7.8006    	3.937439    
 135  	7.8592    	5.949951    
 136  	7.9179    	6.453064    
 137  	7.9765    	7.315552    
 138  	8.0352    	8.178040    
 139  	8.0938    	9.543701    
 140  	8.1525    	14.431213   
 141  	8.2111    	36.712463   
 142  	8.2698    	60.359314   
 143  	8.3284    	78.831238   
 144  	8.3871    	91.553040   
 145  	8.4457    	101.687431  
 146  	8.5044    	109.018745  
 147  	8.5630    	113.043640  
 148  	8.6217    	116.278015  
 149  	8.6804    	119.153008  
 150  	8.7390    	121.524963  
 151  	8.7977    	123.968689  
 152  	8.8563    	125.765556  
 153  	8.9150    	127.059265  
 154  	8.9736    	127.849922  
 155  	9.0323    	128.928040  
 156  	9.0909    	130.509338  
 157  	9.1496    	131.299988  
 158  	9.2082    	132.018738  
 159  	9.2669    	132.881165  
 160  	9.3255    	132.162415  
 161  	9.3842    	133.384338  
 162  	9.4428    	133.959290  
 163  	9.5015    	133.240540  
 164  	9.5601    	134.749939  
 165  	9.6188    	133.815613  
 166  	9.6774    	134.749939  
 167  	9.7361    	135.181213  
 168  	9.7947    	135.037415  
 169  	9.8534    	136.259338  
 170  	9.9120    	135.684265  
 171  	9.9707    	135.828064  
 172  	10.0293   	135.899963  
 173  	10.0880   	136.331238  
 174  	10.1466   	137.696838  
 175  	10.2053   	137.409363  
 176  	10.2639   	137.696838  
 177  	10.3226   	136.762390  
 178  	10.3812   	136.043640  
 179  	10.4399   	135.828064  
 180  	10.4985   	136.403015  
 181  	10.5572   	137.193665  
 182  	10.6158   	136.762390  
 183  	10.6745   	136.834290  
 184  	10.7331   	136.978088  
 185  	10.7918   	137.553040  
 186  	10.8504   	137.265564  
 187  	10.9091   	137.553040  
 188  	10.9677   	137.984314  
 189  	11.0264   	138.559265  
 190  	11.0850   	138.343689  
 191  	11.1437   	137.984314  
 192  	11.2023   	137.696838  
 193  	11.2610   	137.481140  
 194  	11.3196   	137.696838  
 195  	11.3783   	137.840515  
 196  	11.4370   	137.984314  
 197  	11.4956   	136.906189  
 198  	11.5543   	137.768738  
 199  	11.6129   	138.846863  
 200  	11.6716   	138.487488  
 201  	11.7302   	138.774963  
 202  	11.7889   	139.565613  
 203  	11.8475   	138.918640  
 204  	11.9062   	139.134338  
 205  	11.9648   	138.487488  
 206  	12.0235   	138.271790  
 207  	12.0821   	138.487488  
 208  	12.1408   	138.056213  
 209  	12.1994   	138.271790  
 210  	12.2581   	139.637390  
 211  	12.3167   	139.421814  
 212  	12.3754   	139.709290  
 213  	12.4340   	139.062439  
 214  	12.4927   	139.206238  
 215  	12.5513   	138.415588  
 216  	12.6100   	138.128113  
 217  	12.6686   	138.056213  
 218  	12.7273   	138.846863  
 219  	12.7859   	139.565613  
 220  	12.8446   	138.774963  
 221  	12.9032   	138.343689  
 222  	12.9619   	138.846863  
 223  	13.0205   	138.415588  
 224  	13.0792   	138.487488  
 225  	13.1378   	138.487488  
 226  	13.1965   	138.199890  
 227  	13.2551   	138.631165  
 228  	13.3138   	138.846863  
 229  	13.3724   	138.415588  
 230  	13.4311   	137.624939  
 231  	13.4897   	137.984314  
 232  	13.5484   	137.840515  
 233  	13.6070   	138.846863  
 234  	13.6657   	139.853088  
 235  	13.7243   	138.559265  
 236  	13.7830   	138.487488  
 237  	13.8416   	138.487488  
 238  	13.9003   	137.768738  
 239  	13.9589   	137.337463  
 240  	14.0176   	137.696838  
 241  	14.0762   	138.128113  
 242  	14.1349   	138.343689  
 243  	14.1935   	138.846863  
 244  	14.2522   	138.631165  
 245  	14.3109   	136.978088  
 246  	14.3695   	136.187439  
 247  	14.4282   	136.762390  
 248  	14.4868   	136.834290  
 249  	14.5455   	136.978088  
 250  	14.6041   	136.331238  
 251  	14.6628   	136.187439  
 252  	14.7214   	135.324890  
 253  	14.7801   	135.181213  
 254  	14.8387   	135.468689  
 255  	14.8974   	135.684265  
 256  	14.9560   	135.756165  
 257  	15.0147   	136.043640  
 258  	15.0733   	136.043640  
 259  	15.1320   	135.324890  
 260  	15.1906   	135.612488  
 261  	15.2493   	134.462463  
 262  	15.3079   	135.109314  
 263  	15.3666   	134.965515  
 264  	15.4252   	134.821838  
 265  	15.4839   	134.606140  
 266  	15.5425   	134.031189  
 267  	15.6012   	133.671814  
 268  	15.6598   	133.384338  
 269  	15.7185   	133.024963  
 270  	15.7771   	133.168640  
 271  	15.8358   	133.312439  
 272  	15.8944   	132.953064  
 273  	15.9531   	132.162415  
 274  	16.0117   	131.731140  
 275  	16.0704   	132.881165  
 276  	16.1290   	132.162415  
 277  	16.1877   	132.378113  
 278  	16.2463   	133.456238  
 279  	16.3050   	133.528015  
 280  	16.3636   	133.528015  
 281  	16.4223   	133.743713  
 282  	16.4809   	133.959290  
 283  	16.5396   	134.246765  
 284  	16.5982   	134.318665  
 285  	16.6569   	134.103088  
 286  	16.7155   	133.528015  
 287  	16.7742   	134.103088  
 288  	16.8328   	133.671814  
 289  	16.8915   	134.678040  
 290  	16.9501   	134.606140  
 291  	17.0088   	134.174988  
 292  	17.0674   	134.031189  
 293  	17.1261   	133.815613  
 294  	17.1848   	134.318665  
 295  	17.2434   	134.031189  
 296  	17.3021   	134.390564  
 297  	17.3607   	134.606140  
 298  	17.4194   	135.037415  
 299  	17.4780   	135.684265  
 300  	17.5367   	135.756165  
 301  	17.5953   	136.331238  
 302  	17.6540   	136.043640  
 303  	17.7126   	135.181213  
 304  	17.7713   	134.534363  
 305  	17.8299   	134.390564  
 306  	17.8886   	134.965515  
 307  	17.9472   	134.031189  
 308  	18.0059   	134.462463  
 309  	18.0645   	134.174988  
 310  	18.1232   	133.312439  
 311  	18.1818   	133.024963  
 312  	18.2405   	133.312439  
 313  	18.2991   	133.024963  
 314  	18.3578   	133.168640  
 315  	18.4164   	134.318665  
 316  	18.4751   	134.246765  
 317  	18.5337   	132.809265  
 318  	18.5924   	132.449890  
 319  	18.6510   	130.868713  
 320  	18.7097   	131.156189  
 321  	18.7683   	130.078064  
 322  	18.8270   	130.221863  
 323  	18.8856   	131.228088  
 324  	18.9443   	129.790588  
 325  	19.0029   	128.712463  
 326  	19.0616   	127.921814  
 327  	19.1202   	127.418640  
 328  	19.1789   	125.621765  
 329  	19.2375   	124.687439  
 330  	19.2962   	124.256165  
 331  	19.3548   	123.393738  
 332  	19.4135   	121.596855  
 333  	19.4721   	120.590523  
 334  	19.5308   	120.087463  
 335  	19.5894   	119.153008  
 336  	19.6481   	118.865540  
 337  	19.7067   	116.996765  
 338  	19.7654   	115.990540  
 339  	19.8240   	115.271790  
 340  	19.8827   	113.834297  
 341  	19.9413   	112.756165  
 342  	20.0000   	111.390564  
 343  	20.0587   	111.246773  
 344  	20.1173   	109.737495  
 345  	20.1760   	108.012390  
 346  	20.2346   	106.646790  
 347  	20.2933   	104.490547  
 348  	20.3519   	102.837463  
 349  	20.4106   	102.334290  
 350  	20.4692   	100.896790  
 351  	20.5279   	99.603081   
 352  	20.5865   	97.949890   
 353  	20.6452   	96.153015   
 354  	20.7038   	95.937439   
 355  	20.7625   	94.571838   
 356  	20.8211   	91.121758   
 357  	20.8798   	90.259331   
 358  	20.9384   	89.684265   
 359  	20.9971   	88.606140   
 360  	21.0557   	87.456238   
 361  	21.1144   	85.874939   
 362  	21.1730   	85.012390   
 363  	21.2317   	82.856140   
 364  	21.2903   	81.562439   
 365  	21.3490   	79.118713   
 366  	21.4076   	78.687439   
 367  	21.4663   	76.243713   
 368  	21.5249   	74.231140   
 369  	21.5836   	71.859314   
 370  	21.6422   	69.271790   
 371  	21.7009   	67.259338   
 372  	21.7595   	64.599915   
 373  	21.8182   	63.018738   
 374  	21.8768   	60.862488   
 375  	21.9355   	57.484314   
 376  	21.9941   	55.256161   
 377  	22.0528   	52.884338   
 378  	22.1114   	51.231140   
 379  	22.1701   	49.793640   
 380  	22.2287   	48.284363   
 381  	22.2874   	45.840515   
 382  	22.3460   	44.618713   
 383  	22.4047   	43.181213   
 384  	22.4633   	40.809265   
 385  	22.5220   	39.515564   
 386  	22.5806   	37.718689   
 387  	22.6393   	36.712463   
 388  	22.6979   	34.699890   
 389  	22.7566   	34.196838   
 390  	22.8152   	32.831177   
 391  	22.8739   	31.178040   
 392  	22.9326   	30.531189   
 393  	22.9912   	29.596802   
 394  	23.0499   	28.662416   
 395  	23.1085   	26.865540   
 396  	23.1672   	25.931213   
 397  	23.2258   	24.206177   
 398  	23.2845   	22.984314   
 399  	23.3431   	22.696836   
 400  	23.4018   	21.331177   
 401  	23.4604   	19.318665   
 402  	23.5191   	19.678040   
 403  	23.5777   	17.449951   
 404  	23.6364   	16.803040   
 405  	23.6950   	14.934325   
 406  	23.7537   	13.856200   
 407  	23.8123   	12.849916   
 408  	23.8710   	11.268677   
 409  	23.9296   	9.759338    
 410  	23.9883   	8.106201    
 411  	24.0469   	8.034302    
 412  	24.1056   	7.531189    
 413  	24.1642   	7.603088    
 414  	24.2229   	7.171814    
 415  	24.2815   	6.453064    
 416  	24.3402   	6.524963    
 417  	24.3988   	6.093688    
 418  	24.4575   	5.159302    
 419  	24.5161   	5.303040    
 420  	24.5748   	4.512451    
 421  	24.6334   	4.224915    
 422  	24.6921   	3.578064    
 423  	24.7507   	3.649963    
 424  	24.8094   	3.074951    
 425  	24.8680   	1.493713    
 426  	24.9267   	1.278076    
 427  	24.9853   	0.631165    
 428  	25.0440   	-0.015686   
 429  	25.1026   	0.128052    
 430  	25.1613   	-0.303162   
 431  	25.2199   	-1.453186   
 432  	25.2786   	-1.453186   
 433  	25.3372   	-2.028198   
 434  	25.3959   	-2.962585   
 435  	25.4545   	-2.315674   
 436  	25.5132   	-3.321960   
 437  	25.5718   	-2.962585   
 438  	25.6305   	-3.537537   
 439  	25.6891   	-3.465698   
 440  	25.7478   	-4.184448   
 441  	25.8065   	-5.621948   
 442  	25.8651   	-7.850037   
 443  	25.9238   	-8.640686   
 444  	25.9824   	-10.509460  
 445  	26.0411   	-12.450072  
 446  	26.0997   	-13.671936  
 447  	26.1584   	-13.959412  
 448  	26.2170   	-15.900085  
 449  	26.2757   	-29.843811  
 450  	26.3343   	-49.393799  
 451  	26.3930   	-66.428162  
 452  	26.4516   	-79.653198  
 453  	26.5103   	-90.650085  
 454  	26.5689   	-99.131279  
 455  	26.6276   	-105.025078 
 456  	26.6862   	-109.337585 
 457  	26.7449   	-113.003174 
 458  	26.8035   	-117.028137 
 459  	26.8622   	-121.053162 
 460  	26.9208   	-123.640686 
 461  	26.9795   	-125.581299 
 462  	27.0381   	-127.378166 
 463  	27.0968   	-128.456299 
 464  	27.1554   	-129.534424 
 465  	27.2141   	-130.037537 
 466  	27.2727   	-130.756287 
 467  	27.3314   	-131.690674 
 468  	27.3900   	-132.337585 
 469  	27.4487   	-132.696960 
 470  	27.5073   	-134.062561 
 471  	27.5660   	-135.068787 
 472  	27.6246   	-136.075012 
 473  	27.6833   	-135.931335 
 474  	27.7419   	-136.075012 
 475  	27.8006   	-136.578186 
 476  	27.8592   	-136.434387 
 477  	27.9179   	-137.728210 
 478  	27.9765   	-138.878174 
 479  	28.0352   	-138.303162 
 480  	28.0938   	-137.800049 
 481  	28.1525   	-138.518799 
 482  	28.2111   	-139.165710 
 483  	28.2698   	-139.740662 
 484  	28.3284   	-139.453186 
 485  	28.3871   	-139.021912 
 486  	28.4457   	-140.100037 
 487  	28.5044   	-140.531311 
 488  	28.5630   	-141.106262 
 489  	28.6217   	-140.028137 
 490  	28.6804   	-140.028137 
 491  	28.7390   	-140.171936 
 492  	28.7977   	-139.812561 
 493  	28.8563   	-139.021912 
 494  	28.9150   	-138.015686 
 495  	28.9736   	-136.721924 
 496  	29.0323   	-135.284424 
 497  	29.0909   	-122.921936 
 498  	29.1496   	-112.859436 
 499  	29.2082   	-107.109428 
 500  	29.2669   	-105.815674 
 501  	29.3255   	-107.684448 
 502  	29.3842   	-110.415703 
 503  	29.4428   	-114.225037 
 504  	29.5015   	-116.884460 
 505  	29.5601   	-119.759453 
 506  	29.6188   	-122.706299 
 507  	29.6774   	-124.862556 
 508  	29.7361   	-126.731262 
 509  	29.7947   	-128.600037 
 510  	29.8534   	-131.331299 
 511  	29.9120   	-131.475037 
 512  	29.9707   	-132.625061 
 513  	30.0293   	-132.912537 
 514  	30.0880   	-134.565674 
 515  	30.1466   	-135.787537 
 516  	30.2053   	-136.650085 
 517  	30.2639   	-137.728210 
 518  	30.3226   	-138.878174 
 519  	30.3812   	-138.878174 
 520  	30.4399   	-140.028137 
 521  	30.4985   	-139.165710 
 522  	30.5572   	-139.740662 
 523  	30.6158   	-140.459412 
 524  	30.6745   	-140.243835 
 525  	30.7331   	-140.315674 
 526  	30.7918   	-140.675049 
 527  	30.8504   	-141.034424 
 528  	30.9091   	-140.746887 
 529  	30.9677   	-140.675049 
 530  	31.0264   	-141.250061 
 531  	31.0850   	-141.250061 
 532  	31.1437   	-140.675049 
 533  	31.2023   	-141.537537 
 534  	31.2610   	-142.471924 
 535  	31.3196   	-142.687561 
 536  	31.3783   	-142.471924 
 537  	31.4370   	-142.903137 
 538  	31.4956   	-142.328186 
 539  	31.5543   	-141.753174 
 540  	31.6129   	-140.531311 
 541  	31.6716   	-140.746887 
 542  	31.7302   	-141.321960 
 543  	31.7889   	-141.034424 
 544  	31.8475   	-140.315674 
 545  	31.9062   	-140.100037 
 546  	31.9648   	-140.531311 
 547  	32.0235   	-140.962585 
 548  	32.0821   	-140.675049 
 549  	32.1408   	-140.818787 
 550  	32.1994   	-141.250061 
 551  	32.2581   	-141.465637 
 552  	32.3167   	-141.034424 
 553  	32.3754   	-140.100037 
 554  	32.4340   	-140.675049 
 555  	32.4927   	-140.675049 
 556  	32.5513   	-141.178162 
 557  	32.6100   	-141.537537 
 558  	32.6686   	-141.178162 
 559  	32.7273   	-140.387512 
 560  	32.7859   	-140.746887 
 561  	32.8446   	-140.028137 
 562  	32.9032   	-140.746887 
 563  	32.9619   	-140.387512 
 564  	33.0205   	-140.387512 
 565  	33.0792   	-140.459412 
 566  	33.1378   	-140.315674 
 567  	33.1965   	-140.171936 
 568  	33.2551   	-140.100037 
 569  	33.3138   	-139.237549 
 570  	33.3724   	-139.884460 
 571  	33.4311   	-139.021912 
 572  	33.4897   	-140.100037 
 573  	33.5484   	-139.093811 
 574  	33.6070   	-139.021912 
 575  	33.6657   	-138.734436 
 576  	33.7243   	-137.871887 
 577  	33.7830   	-138.303162 
 578  	33.8416   	-137.871887 
 579  	33.9003   	-137.440674 
 580  	33.9589   	-138.375061 
 581  	34.0176   	-137.871887 
 582  	34.0762   	-137.512512 
 583  	34.1349   	-137.728210 
 584  	34.1935   	-138.087585 
 585  	34.2522   	-138.375061 
 586  	34.3109   	-138.590637 
 587  	34.3695   	-138.734436 
 588  	34.4282   	-137.584412 
 589  	34.4868   	-137.656311 
 590  	34.5455   	-137.800049 
 591  	34.6041   	-137.656311 
 592  	34.6628   	-136.721924 
 593  	34.7214   	-136.506287 
 594  	34.7801   	-136.937561 
 595  	34.8387   	-137.512512 
 596  	34.8974   	-137.512512 
 597  	34.9560   	-137.225037 
 598  	35.0147   	-138.015686 
 599  	35.0733   	-137.728210 
 600  	35.1320   	-137.728210 
 601  	35.1906   	-137.656311 
 602  	35.2493   	-137.728210 
 603  	35.3079   	-137.368835 
 604  	35.3666   	-137.656311 
 605  	35.4252   	-137.728210 
 606  	35.4839   	-137.440674 
 607  	35.5425   	-138.015686 
 608  	35.6012   	-137.871887 
 609  	35.6598   	-138.375061 
 610  	35.7185   	-138.015686 
 611  	35.7771   	-138.590637 
 612  	35.8358   	-138.806335 
 613  	35.8944   	-139.884460 
 614  	35.9531   	-139.021912 
 615  	36.0117   	-138.159424 
 616  	36.0704   	-139.093811 
 617  	36.1290   	-138.806335 
 618  	36.1877   	-138.375061 
 619  	36.2463   	-138.662537 
 620  	36.3050   	-138.087585 
 621  	36.3636   	-138.590637 
 622  	36.4223   	-137.871887 
 623  	36.4809   	-137.728210 
 624  	36.5396   	-137.081299 
 625  	36.5982   	-137.225037 
 626  	36.6569   	-136.865662 
 627  	36.7155   	-136.937561 
 628  	36.7742   	-136.721924 
 629  	36.8328   	-136.937561 
 630  	36.8915   	-136.721924 
 631  	36.9501   	-135.715637 
 632  	37.0088   	-134.062561 
 633  	37.0674   	-133.775085 
 634  	37.1261   	-132.984436 
 635  	37.1848   	-132.481262 
 636  	37.2434   	-131.834412 
 637  	37.3021   	-131.618835 
 638  	37.3607   	-129.821960 
 639  	37.4194   	-127.593811 
 640  	37.4780   	-126.875061 
 641  	37.5367   	-125.437561 
 642  	37.5953   	-125.509460 
 643  	37.6540   	-125.006287 
 644  	37.7126   	-124.646912 
 645  	37.7713   	-123.353210 
 646  	37.8299   	-122.275085 
 647  	37.8886   	-121.556335 
 648  	37.9472   	-120.621895 
 649  	38.0059   	-120.334412 
 650  	38.0645   	-119.112549 
 651  	38.1232   	-117.818779 
 652  	38.1818   	-116.740662 
 653  	38.2405   	-115.806343 
 654  	38.2991   	-114.512505 
 655  	38.3578   	-113.075073 
 656  	38.4164   	-111.853210 
 657  	38.4751   	-110.559448 
 658  	38.5337   	-108.762566 
 659  	38.5924   	-107.900085 
 660  	38.6510   	-105.240669 
 661  	38.7097   	-104.881287 
 662  	38.7683   	-102.653191 
 663  	38.8270   	-101.790718 
 664  	38.8856   	-99.706299  
 665  	38.9443   	-97.693787  
 666  	39.0029   	-95.825073  
 667  	39.0616   	-94.746941  
 668  	39.1202   	-94.315674  
 669  	39.1789   	-93.165710  
 670  	39.2375   	-91.225044  
 671  	39.2962   	-90.146912  
 672  	39.3548   	-88.062561  
 673  	39.4135   	-87.631287  
 674  	39.4721   	-85.546936  
 675  	39.5308   	-84.468811  
 676  	39.5894   	-82.600037  
 677  	39.6481   	-80.443787  
 678  	39.7067   	-78.503174  
 679  	39.7654   	-76.921936  
 680  	39.8240   	-75.843811  
 681  	39.8827   	-72.537537  
 682  	39.9413   	-70.237549  
 683  	40.0000   	-67.578186  
 684  	40.0587   	-66.931335  
 685  	40.1173   	-64.271912  
 686  	40.1760   	-63.337585  
 687  	40.2346   	-60.534424  
 688  	40.2933   	-57.803162  
 689  	40.3519   	-56.940678  
 690  	40.4106   	-55.071960  
 691  	40.4692   	-54.281311  
 692  	40.5279   	-50.975040  
 693  	40.5865   	-49.106323  
 694  	40.6452   	-47.740662  
 695  	40.7038   	-46.806332  
 696  	40.7625   	-44.721924  
 697  	40.8211   	-44.146912  
 698  	40.8798   	-42.637573  
 699  	40.9384   	-42.421936  
 700  	40.9971   	-41.056335  
 701  	41.0557   	-39.546936  
 702  	41.1144   	-39.546936  
 703  	41.1730   	-38.900085  
 704  	41.2317   	-37.103210  
 705  	41.2903   	-36.168823  
 706  	41.3490   	-34.803162  
 707  	41.4076   	-34.156311  
 708  	41.4663   	-31.568787  
 709  	41.5249   	-30.131287  
 710  	41.5836   	-29.196960  
 711  	41.6422   	-28.046936  
 712  	41.7009   	-27.112549  
 713  	41.7595   	-25.675049  
 714  	41.8182   	-25.675049  
 715  	41.8768   	-23.878174  
 716  	41.9355   	-23.375061  
 717  	41.9941   	-21.362549  
 718  	42.0528   	-20.212585  
 719  	42.1114   	-17.768799  
 720  	42.1701   	-16.043823  
 721  	42.2287   	-15.540710  
 722  	42.2874   	-14.965699  
 723  	42.3460   	-15.540710  
 724  	42.4047   	-14.318787  
 725  	42.4633   	-14.175050  
 726  	42.5220   	-13.384460  
 727  	42.5806   	-13.456299  
 728  	42.6393   	-12.018799  
 729  	42.6979   	-12.162537  
 730  	42.7566   	-11.587584  
 731  	42.8152   	-11.875061  
 732  	42.8739   	-11.659423  
 733  	42.9326   	-10.868835  
 734  	42.9912   	-9.359436   
 735  	43.0499   	-8.856323   
 736  	43.1085   	-8.137573   
 737  	43.1672   	-7.993836   
 738  	43.2258   	-7.275085   
 739  	43.2845   	-6.843811   
 740  	43.3431   	-7.346923   
 741  	43.4018   	-6.843811   
 742  	43.4604   	-6.125062   
 743  	43.5191   	-5.550049   
 744  	43.5777   	-4.112549   
 745  	43.6364   	-4.759460   
 746  	43.6950   	-3.968811   
 747  	43.7537   	-3.609436   
 748  	43.8123   	-4.328186   
 749  	43.8710   	-4.831299   
 750  	43.9296   	-4.256287   
 751  	43.9883   	-4.831299   
 752  	44.0469   	-4.400085   
 753  	44.1056   	-3.825073   
 754  	44.1642   	-4.184448   
 755  	44.2229   	-3.681335   
 756  	44.2815   	-4.615662   
 757  	44.3402   	-3.753174   
 758  	44.3988   	-4.471924   
 759  	44.4575   	-4.687561   
 760  	44.5161   	-4.040710   
 761  	44.5748   	-3.321960   
 762  	44.6334   	-3.753174   
 763  	44.6921   	-3.393799   
 764  	44.7507   	-3.896912   
 765  	44.8094   	-4.040710   
 766  	44.8680   	-2.962585   
 767  	44.9267   	-3.321960   
 768  	44.9853   	-3.537537   
 769  	45.0440   	-3.537537   
 770  	45.1026   	-3.321960   
 771  	45.1613   	-2.890686   
 772  	45.2199   	-1.812561   
 773  	45.2786   	-2.675049   
 774  	45.3372   	-3.321960   
 775  	45.3959   	-3.034424   
 776  	45.4545   	-3.825073   
 777  	45.5132   	-3.609436   
 778  	45.5718   	-4.184448   
 779  	45.6305   	-3.465698   
 780  	45.6891   	-3.968811   
 781  	45.7478   	-3.250061   
 782  	45.8065   	-3.250061   
 783  	45.8651   	-3.321960   
 784  	45.9238   	-2.962585   
 785  	45.9824   	-4.328186   
 786  	46.0411   	-4.112549   
 787  	46.0997   	-3.609436   
 788  	46.1584   	-3.250061   
 789  	46.2170   	-3.393799   
 790  	46.2757   	-3.753174   
 791  	46.3343   	-3.465698   
 792  	46.3930   	-4.831299   
 793  	46.4516   	-4.615662   
 794  	46.5103   	-4.471924   
 795  	46.5689   	-5.334412   
 796  	46.6276   	-4.543823   
 797  	46.6862   	-4.256287   
 798  	46.7449   	-4.903198   
 799  	46.8035   	-5.118835   
 800  	46.8622   	-5.765686   
 801  	46.9208   	-6.484436   
 802  	46.9795   	-7.921936   
 803  	47.0381   	-8.065674   
 804  	47.0968   	-9.503174   
 805  	47.1554   	-16.331299  
 806  	47.2141   	-23.662535  
 807  	47.2727   	-29.196960  
 808  	47.3314   	-32.359436  
 809  	47.3900   	-33.006287  
 810  	47.4487   	-31.784424  
 811  	47.5073   	-30.706299  
 812  	47.5660   	-29.412537  
 813  	47.6246   	-26.968813  
 814  	47.6833   	-25.100037  
 815  	47.7419   	-22.368835  
 816  	47.8006   	-20.140686  
 817  	47.8592   	-19.134460  
 818  	47.9179   	-17.840698  
 819  	47.9765   	-16.690674  
 820  	48.0352   	-15.037538  
 821  	48.0938   	-14.175050  
 822  	48.1525   	-12.593811  
 823  	48.2111   	-12.665710  
 824  	48.2698   	-12.018799  
 825  	48.3284   	-10.940674  
 826  	48.3871   	-10.581299  
 827  	48.4457   	-9.718811   
 828  	48.5044   	-10.437561  
 829  	48.5630   	-10.365662  
 830  	48.6217   	-9.503174   
 831  	48.6804   	-9.287537   
 832  	48.7390   	-9.000061   
 833  	48.7977   	-8.353210   
 834  	48.8563   	-8.425049   
 835  	48.9150   	-7.993836   
 836  	48.9736   	-8.425049   
 837  	49.0323   	-7.778198   
 838  	49.0909   	-9.071960   
 839  	49.1496   	-8.640686   
 840  	49.2082   	-8.568787   
 841  	49.2669   	-8.209412   
 842  	49.3255   	-6.771912   
 843  	49.3842   	-8.496948   
 844  	49.4428   	-7.562561   
 845  	49.5015   	-7.131287   
 846  	49.5601   	-6.915710   
 847  	49.6188   	-7.850037   
 848  	49.6774   	-7.418823   
 849  	49.7361   	-6.843811   
 850  	49.7947   	-6.915710   
 851  	49.8534   	-6.412536   
 852  	49.9120   	-5.765686   
 853  	49.9707   	-5.190674   
 854  	50.0293   	-5.621948   
 855  	50.0880   	-6.412536   
 856  	50.1466   	-5.981323   
 857  	50.2053   	-6.700073   
 858  	50.2639   	-7.203186   
 859  	50.3226   	-6.196960   
 860  	50.3812   	-6.196960   
 861  	50.4399   	-5.837585   
 862  	50.4985   	-6.196960   
 863  	50.5572   	-5.550049   
 864  	50.6158   	-5.765686   
 865  	50.6745   	-6.125062   
 866  	50.7331   	-6.196960   
 867  	50.7918   	-5.550049   
 868  	50.8504   	-5.621948   
 869  	50.9091   	-5.693787   
 870  	50.9677   	-5.909424   
 871  	51.0264   	-6.340698   
 872  	51.0850   	-7.490662   
 873  	51.1437   	-6.628174   
 874  	51.2023   	-6.556335   
 875  	51.2610   	-7.203186   
 876  	51.3196   	-6.915710   
 877  	51.3783   	-7.059449   
 878  	51.4370   	-6.412536   
 879  	51.4956   	-6.771912   
 880  	51.5543   	-7.490662   
 881  	51.6129   	-7.346923   
 882  	51.6716   	-7.275085   
 883  	51.7302   	-7.346923   
 884  	51.7889   	-7.346923   
 885  	51.8475   	-7.059449   
 886  	51.9062   	-6.556335   
 887  	51.9648   	-6.771912   
 888  	52.0235   	-6.412536   
 889  	52.0821   	-6.412536   
 890  	52.1408   	-6.843811   
 891  	52.1994   	-6.628174   
 892  	52.2581   	-7.778198   
 893  	52.3167   	-6.340698   
 894  	52.3754   	-6.340698   
 895  	52.4340   	-6.053162   
 896  	52.4927   	-6.843811   
 897  	52.5513   	-7.203186   
 898  	52.6100   	-6.556335   
 899  	52.6686   	-6.628174   
 900  	52.7273   	-6.987549   
 901  	52.7859   	-7.490662   
 902  	52.8446   	-6.915710   
 903  	52.9032   	-7.203186   
 904  	52.9619   	-7.778198   
 905  	53.0205   	-6.700073   
 906  	53.0792   	-7.634460   
 907  	53.1378   	-7.203186   
 908  	53.1965   	-6.628174   
 909  	53.2551   	-5.981323   
 910  	53.3138   	-5.837585   
 911  	53.3724   	-6.484436   
 912  	53.4311   	-6.915710   
 913  	53.4897   	-6.628174   
 914  	53.5484   	-6.556335   
 915  	53.6070   	-5.981323   
 916  	53.6657   	-6.556335   
 917  	53.7243   	-6.484436   
 918  	53.7830   	-6.556335   
 919  	53.8416   	-6.915710   
 920  	53.9003   	-6.843811   
 921  	53.9589   	-7.131287   
 922  	54.0176   	-6.843811   
 923  	54.0762   	-6.843811   
 924  	54.1349   	-7.203186   
 925  	54.1935   	-6.771912   
 926  	54.2522   	-7.131287   
 927  	54.3109   	-6.556335   
 928  	54.3695   	-7.706299   
 929  	54.4282   	-7.275085   
 930  	54.4868   	-6.987549   
 931  	54.5455   	-6.987549   
 932  	54.6041   	-6.843811   
 933  	54.6628   	-5.981323   
 934  	54.7214   	-5.981323   
 935  	54.7801   	-6.125062   
 936  	54.8387   	-6.196960   
 937  	54.8974   	-6.340698   
 938  	54.9560   	-6.196960   
 939  	55.0147   	-6.053162   
 940  	55.0733   	-5.909424   
 941  	55.1320   	-6.915710   
 942  	55.1906   	-8.209412   
 943  	55.2493   	-6.915710   
 944  	55.3079   	-6.987549   
 945  	55.3666   	-6.843811   
 946  	55.4252   	-7.131287   
 947  	55.4839   	-7.418823   
 948  	55.5425   	-6.771912   
 949  	55.6012   	-6.340698   
 950  	55.6598   	-6.987549   
 951  	55.7185   	-7.418823   
 952  	55.7771   	-7.418823   
 953  	55.8358   	-6.843811   
 954  	55.8944   	-7.778198   
 955  	55.9531   	-6.987549   
 956  	56.0117   	-7.131287   
 957  	56.0704   	-6.628174   
 958  	56.1290   	-6.125062   
 959  	56.1877   	-6.771912   
 960  	56.2463   	-5.981323   
 961  	56.3050   	-6.125062   
 962  	56.3636   	-5.837585   
 963  	56.4223   	-6.340698   
 964  	56.4809   	-6.125062   
 965  	56.5396   	-7.634460   
 966  	56.5982   	-6.340698   
 967  	56.6569   	-6.412536   
 968  	56.7155   	-6.628174   
 969  	56.7742   	-6.771912   
 970  	56.8328   	-6.843811   
 971  	56.8915   	-7.131287   
 972  	56.9501   	-7.059449   
 973  	57.0088   	-6.843811   
 974  	57.0674   	-7.275085   
 975  	57.1261   	-7.059449   
 976  	57.1848   	-7.706299   
 977  	57.2434   	-7.921936   
 978  	57.3021   	-7.490662   
 979  	57.3607   	-7.562561   
 980  	57.4194   	-6.628174   
 981  	57.4780   	-6.340698   
 982  	57.5367   	-7.490662   
 983  	57.5953   	-7.490662   
 984  	57.6540   	-7.562561   
 985  	57.7126   	-7.059449   
 986  	57.7713   	-6.268798   
 987  	57.8299   	-6.556335   
 988  	57.8886   	-6.843811   
 989  	57.9472   	-7.275085   
 990  	58.0059   	-7.131287   
 991  	58.0645   	-6.556335   
 992  	58.1232   	-7.059449   
 993  	58.1818   	-6.771912   
 994  	58.2405   	-6.628174   
 995  	58.2991   	-6.556335   
 996  	58.3578   	-6.628174   
 997  	58.4164   	-6.125062   
 998  	58.4751   	-6.628174   
 999  	58.5337   	-6.843811   
 1000 	58.5924   	-6.771912   
 1001 	58.6510   	-7.131287   
 1002 	58.7097   	-7.346923   
 1003 	58.7683   	-7.490662   
 1004 	58.8270   	-6.700073   
 1005 	58.8856   	-6.196960   
 1006 	58.9443   	-6.771912   
 1007 	59.0029   	-6.771912   
 1008 	59.0616   	-7.275085   
 1009 	59.1202   	-6.412536   
 1010 	59.1789   	-6.412536   
 1011 	59.2375   	-6.843811   
 1012 	59.2962   	-6.125062   
 1013 	59.3548   	-6.412536   
 1014 	59.4135   	-6.268798   
 1015 	59.4721   	-6.556335   
 1016 	59.5308   	-6.268798   
 1017 	59.5894   	-5.837585   
 1018 	59.6481   	-7.059449   
 1019 	59.7067   	-7.275085   
 1020 	59.7654   	-7.059449   
 1021 	59.8240   	-6.843811   
 1022 	59.8827   	-6.700073   
 1023 	59.9413   	-6.700073   
 1024 	60.0000   	-6.556335   

